# 09_12_2020_18_01_18_G6_64_Spalt_2_1851
# Messung der Beugung an Spalten und Gittern
# 6.4_Spalt_2
# position(Nr) position(mm) Messwerte(V)
0,0000	0,0000	0,0516
1,0000	0,0626	0,0513
2,0000	0,1253	0,0516
3,0000	0,1879	0,0516
4,0000	0,2506	0,0513
5,0000	0,3132	0,0512
6,0000	0,3758	0,0512
7,0000	0,4385	0,0511
8,0000	0,5011	0,0515
9,0000	0,5637	0,0517
10,0000	0,6264	0,0516
11,0000	0,6890	0,0524
12,0000	0,7517	0,0517
13,0000	0,8143	0,0521
14,0000	0,8769	0,0522
15,0000	0,9396	0,0524
16,0000	1,0022	0,0521
17,0000	1,0649	0,0521
18,0000	1,1275	0,0524
19,0000	1,1901	0,0521
20,0000	1,2528	0,0518
21,0000	1,3154	0,0524
22,0000	1,3780	0,0516
23,0000	1,4407	0,0518
24,0000	1,5033	0,0517
25,0000	1,5660	0,0520
26,0000	1,6286	0,0518
27,0000	1,6912	0,0521
28,0000	1,7539	0,0520
29,0000	1,8165	0,0518
30,0000	1,8792	0,0517
31,0000	1,9418	0,0516
32,0000	2,0044	0,0515
33,0000	2,0671	0,0518
34,0000	2,1297	0,0513
35,0000	2,1923	0,0512
36,0000	2,2550	0,0516
37,0000	2,3176	0,0512
38,0000	2,3803	0,0511
39,0000	2,4429	0,0507
40,0000	2,5055	0,0512
41,0000	2,5682	0,0513
42,0000	2,6308	0,0515
43,0000	2,6934	0,0517
44,0000	2,7561	0,0512
45,0000	2,8187	0,0512
46,0000	2,8814	0,0507
47,0000	2,9440	0,0506
48,0000	3,0066	0,0511
49,0000	3,0693	0,0515
50,0000	3,1319	0,0509
51,0000	3,1946	0,0520
52,0000	3,2572	0,0512
53,0000	3,3198	0,0511
54,0000	3,3825	0,0508
55,0000	3,4451	0,0517
56,0000	3,5077	0,0513
57,0000	3,5704	0,0521
58,0000	3,6330	0,0516
59,0000	3,6957	0,0511
60,0000	3,7583	0,0518
61,0000	3,8209	0,0511
62,0000	3,8836	0,0515
63,0000	3,9462	0,0512
64,0000	4,0089	0,0518
65,0000	4,0715	0,0521
66,0000	4,1341	0,0517
67,0000	4,1968	0,0518
68,0000	4,2594	0,0524
69,0000	4,3220	0,0521
70,0000	4,3847	0,0522
71,0000	4,4473	0,0524
72,0000	4,5100	0,0524
73,0000	4,5726	0,0517
74,0000	4,6352	0,0520
75,0000	4,6979	0,0518
76,0000	4,7605	0,0517
77,0000	4,8232	0,0517
78,0000	4,8858	0,0515
79,0000	4,9484	0,0518
80,0000	5,0111	0,0518
81,0000	5,0737	0,0516
82,0000	5,1363	0,0516
83,0000	5,1990	0,0516
84,0000	5,2616	0,0508
85,0000	5,3243	0,0512
86,0000	5,3869	0,0513
87,0000	5,4495	0,0509
88,0000	5,5122	0,0508
89,0000	5,5748	0,0508
90,0000	5,6375	0,0508
91,0000	5,7001	0,0486
92,0000	5,7627	0,0476
93,0000	5,8254	0,0462
94,0000	5,8880	0,0455
95,0000	5,9506	0,0454
96,0000	6,0133	0,0455
97,0000	6,0759	0,0453
98,0000	6,1386	0,0446
99,0000	6,2012	0,0439
100,0000	6,2638	0,0436
101,0000	6,3265	0,0440
102,0000	6,3891	0,0444
103,0000	6,4518	0,0439
104,0000	6,5144	0,0440
105,0000	6,5770	0,0436
106,0000	6,6397	0,0439
107,0000	6,7023	0,0437
108,0000	6,7649	0,0442
109,0000	6,8276	0,0436
110,0000	6,8902	0,0436
111,0000	6,9529	0,0436
112,0000	7,0155	0,0436
113,0000	7,0781	0,0439
114,0000	7,1408	0,0442
115,0000	7,2034	0,0441
116,0000	7,2661	0,0439
117,0000	7,3287	0,0445
118,0000	7,3913	0,0437
119,0000	7,4540	0,0437
120,0000	7,5166	0,0445
121,0000	7,5792	0,0439
122,0000	7,6419	0,0446
123,0000	7,7045	0,0440
124,0000	7,7672	0,0439
125,0000	7,8298	0,0440
126,0000	7,8924	0,0439
127,0000	7,9551	0,0440
128,0000	8,0177	0,0444
129,0000	8,0803	0,0444
130,0000	8,1430	0,0446
131,0000	8,2056	0,0437
132,0000	8,2683	0,0437
133,0000	8,3309	0,0437
134,0000	8,3935	0,0442
135,0000	8,4562	0,0441
136,0000	8,5188	0,0440
137,0000	8,5815	0,0439
138,0000	8,6441	0,0440
139,0000	8,7067	0,0441
140,0000	8,7694	0,0436
141,0000	8,8320	0,0442
142,0000	8,8946	0,0441
143,0000	8,9573	0,0441
144,0000	9,0199	0,0440
145,0000	9,0826	0,0437
146,0000	9,1452	0,0440
147,0000	9,2078	0,0441
148,0000	9,2705	0,0437
149,0000	9,3331	0,0437
150,0000	9,3958	0,0439
151,0000	9,4584	0,0441
152,0000	9,5210	0,0449
153,0000	9,5837	0,0441
154,0000	9,6463	0,0448
155,0000	9,7089	0,0449
156,0000	9,7716	0,0453
157,0000	9,8342	0,0444
158,0000	9,8969	0,0451
159,0000	9,9595	0,0454
160,0000	10,0221	0,0451
161,0000	10,0848	0,0451
162,0000	10,1474	0,0451
163,0000	10,2101	0,0453
164,0000	10,2727	0,0449
165,0000	10,3353	0,0445
166,0000	10,3980	0,0445
167,0000	10,4606	0,0445
168,0000	10,5232	0,0442
169,0000	10,5859	0,0445
170,0000	10,6485	0,0440
171,0000	10,7112	0,0439
172,0000	10,7738	0,0442
173,0000	10,8364	0,0437
174,0000	10,8991	0,0439
175,0000	10,9617	0,0436
176,0000	11,0244	0,0436
177,0000	11,0870	0,0439
178,0000	11,1496	0,0433
179,0000	11,2123	0,0436
180,0000	11,2749	0,0440
181,0000	11,3375	0,0437
182,0000	11,4002	0,0439
183,0000	11,4628	0,0437
184,0000	11,5255	0,0437
185,0000	11,5881	0,0439
186,0000	11,6507	0,0435
187,0000	11,7134	0,0437
188,0000	11,7760	0,0436
189,0000	11,8387	0,0440
190,0000	11,9013	0,0435
191,0000	11,9639	0,0439
192,0000	12,0266	0,0436
193,0000	12,0892	0,0444
194,0000	12,1518	0,0435
195,0000	12,2145	0,0444
196,0000	12,2771	0,0442
197,0000	12,3398	0,0441
198,0000	12,4024	0,0448
199,0000	12,4650	0,0450
200,0000	12,5277	0,0451
201,0000	12,5903	0,0446
202,0000	12,6530	0,0448
203,0000	12,7156	0,0454
204,0000	12,7782	0,0451
205,0000	12,8409	0,0451
206,0000	12,9035	0,0453
207,0000	12,9661	0,0454
208,0000	13,0288	0,0455
209,0000	13,0914	0,0446
210,0000	13,1541	0,0451
211,0000	13,2167	0,0454
212,0000	13,2793	0,0453
213,0000	13,3420	0,0450
214,0000	13,4046	0,0449
215,0000	13,4672	0,0449
216,0000	13,5299	0,0445
217,0000	13,5925	0,0445
218,0000	13,6552	0,0445
219,0000	13,7178	0,0445
220,0000	13,7804	0,0445
221,0000	13,8431	0,0445
222,0000	13,9057	0,0440
223,0000	13,9684	0,0437
224,0000	14,0310	0,0440
225,0000	14,0936	0,0439
226,0000	14,1563	0,0436
227,0000	14,2189	0,0437
228,0000	14,2815	0,0435
229,0000	14,3442	0,0431
230,0000	14,4068	0,0433
231,0000	14,4695	0,0432
232,0000	14,5321	0,0433
233,0000	14,5947	0,0433
234,0000	14,6574	0,0436
235,0000	14,7200	0,0435
236,0000	14,7827	0,0442
237,0000	14,8453	0,0441
238,0000	14,9079	0,0439
239,0000	14,9706	0,0442
240,0000	15,0332	0,0445
241,0000	15,0958	0,0441
242,0000	15,1585	0,0437
243,0000	15,2211	0,0440
244,0000	15,2838	0,0442
245,0000	15,3464	0,0435
246,0000	15,4090	0,0439
247,0000	15,4717	0,0440
248,0000	15,5343	0,0442
249,0000	15,5970	0,0437
250,0000	15,6596	0,0440
251,0000	15,7222	0,0439
252,0000	15,7849	0,0437
253,0000	15,8475	0,0440
254,0000	15,9101	0,0436
255,0000	15,9728	0,0441
256,0000	16,0354	0,0444
257,0000	16,0981	0,0441
258,0000	16,1607	0,0449
259,0000	16,2233	0,0439
260,0000	16,2860	0,0442
261,0000	16,3486	0,0442
262,0000	16,4113	0,0442
263,0000	16,4739	0,0444
264,0000	16,5365	0,0440
265,0000	16,5992	0,0442
266,0000	16,6618	0,0439
267,0000	16,7244	0,0442
268,0000	16,7871	0,0439
269,0000	16,8497	0,0436
270,0000	16,9124	0,0442
271,0000	16,9750	0,0441
272,0000	17,0376	0,0439
273,0000	17,1003	0,0442
274,0000	17,1629	0,0439
275,0000	17,2256	0,0436
276,0000	17,2882	0,0437
277,0000	17,3508	0,0441
278,0000	17,4135	0,0442
279,0000	17,4761	0,0439
280,0000	17,5387	0,0444
281,0000	17,6014	0,0441
282,0000	17,6640	0,0442
283,0000	17,7267	0,0441
284,0000	17,7893	0,0441
285,0000	17,8519	0,0445
286,0000	17,9146	0,0444
287,0000	17,9772	0,0440
288,0000	18,0399	0,0439
289,0000	18,1025	0,0440
290,0000	18,1651	0,0442
291,0000	18,2278	0,0439
292,0000	18,2904	0,0445
293,0000	18,3530	0,0448
294,0000	18,4157	0,0449
295,0000	18,4783	0,0446
296,0000	18,5410	0,0449
297,0000	18,6036	0,0449
298,0000	18,6662	0,0449
299,0000	18,7289	0,0446
300,0000	18,7915	0,0451
301,0000	18,8541	0,0450
302,0000	18,9168	0,0457
303,0000	18,9794	0,0450
304,0000	19,0421	0,0450
305,0000	19,1047	0,0445
306,0000	19,1673	0,0441
307,0000	19,2300	0,0445
308,0000	19,2926	0,0442
309,0000	19,3553	0,0444
310,0000	19,4179	0,0435
311,0000	19,4805	0,0437
312,0000	19,5432	0,0441
313,0000	19,6058	0,0436
314,0000	19,6684	0,0439
315,0000	19,7311	0,0436
316,0000	19,7937	0,0441
317,0000	19,8564	0,0441
318,0000	19,9190	0,0442
319,0000	19,9816	0,0440
320,0000	20,0443	0,0441
321,0000	20,1069	0,0445
322,0000	20,1696	0,0439
323,0000	20,2322	0,0441
324,0000	20,2948	0,0439
325,0000	20,3575	0,0442
326,0000	20,4201	0,0446
327,0000	20,4827	0,0440
328,0000	20,5454	0,0439
329,0000	20,6080	0,0436
330,0000	20,6707	0,0437
331,0000	20,7333	0,0437
332,0000	20,7959	0,0437
333,0000	20,8586	0,0448
334,0000	20,9212	0,0442
335,0000	20,9839	0,0444
336,0000	21,0465	0,0448
337,0000	21,1091	0,0449
338,0000	21,1718	0,0454
339,0000	21,2344	0,0454
340,0000	21,2970	0,0458
341,0000	21,3597	0,0463
342,0000	21,4223	0,0458
343,0000	21,4850	0,0467
344,0000	21,5476	0,0469
345,0000	21,6102	0,0472
346,0000	21,6729	0,0466
347,0000	21,7355	0,0467
348,0000	21,7982	0,0466
349,0000	21,8608	0,0464
350,0000	21,9234	0,0468
351,0000	21,9861	0,0460
352,0000	22,0487	0,0460
353,0000	22,1113	0,0454
354,0000	22,1740	0,0458
355,0000	22,2366	0,0455
356,0000	22,2993	0,0448
357,0000	22,3619	0,0448
358,0000	22,4245	0,0448
359,0000	22,4872	0,0442
360,0000	22,5498	0,0446
361,0000	22,6125	0,0439
362,0000	22,6751	0,0441
363,0000	22,7377	0,0439
364,0000	22,8004	0,0439
365,0000	22,8630	0,0441
366,0000	22,9256	0,0440
367,0000	22,9883	0,0444
368,0000	23,0509	0,0437
369,0000	23,1136	0,0435
370,0000	23,1762	0,0431
371,0000	23,2388	0,0436
372,0000	23,3015	0,0437
373,0000	23,3641	0,0437
374,0000	23,4268	0,0440
375,0000	23,4894	0,0436
376,0000	23,5520	0,0433
377,0000	23,6147	0,0433
378,0000	23,6773	0,0442
379,0000	23,7399	0,0441
380,0000	23,8026	0,0439
381,0000	23,8652	0,0439
382,0000	23,9279	0,0445
383,0000	23,9905	0,0445
384,0000	24,0531	0,0444
385,0000	24,1158	0,0444
386,0000	24,1784	0,0445
387,0000	24,2410	0,0442
388,0000	24,3037	0,0446
389,0000	24,3663	0,0441
390,0000	24,4290	0,0444
391,0000	24,4916	0,0445
392,0000	24,5542	0,0446
393,0000	24,6169	0,0442
394,0000	24,6795	0,0444
395,0000	24,7422	0,0450
396,0000	24,8048	0,0442
397,0000	24,8674	0,0446
398,0000	24,9301	0,0451
399,0000	24,9927	0,0448
400,0000	25,0553	0,0449
401,0000	25,1180	0,0449
402,0000	25,1806	0,0450
403,0000	25,2433	0,0450
404,0000	25,3059	0,0446
405,0000	25,3685	0,0453
406,0000	25,4312	0,0449
407,0000	25,4938	0,0445
408,0000	25,5565	0,0442
409,0000	25,6191	0,0446
410,0000	25,6817	0,0444
411,0000	25,7444	0,0440
412,0000	25,8070	0,0439
413,0000	25,8696	0,0439
414,0000	25,9323	0,0439
415,0000	25,9949	0,0436
416,0000	26,0576	0,0442
417,0000	26,1202	0,0439
418,0000	26,1828	0,0440
419,0000	26,2455	0,0439
420,0000	26,3081	0,0436
421,0000	26,3708	0,0440
422,0000	26,4334	0,0445
423,0000	26,4960	0,0436
424,0000	26,5587	0,0444
425,0000	26,6213	0,0441
426,0000	26,6839	0,0444
427,0000	26,7466	0,0440
428,0000	26,8092	0,0440
429,0000	26,8719	0,0442
430,0000	26,9345	0,0439
431,0000	26,9971	0,0441
432,0000	27,0598	0,0441
433,0000	27,1224	0,0449
434,0000	27,1851	0,0445
435,0000	27,2477	0,0445
436,0000	27,3103	0,0450
437,0000	27,3730	0,0450
438,0000	27,4356	0,0449
439,0000	27,4982	0,0449
440,0000	27,5609	0,0454
441,0000	27,6235	0,0450
442,0000	27,6862	0,0450
443,0000	27,7488	0,0451
444,0000	27,8114	0,0451
445,0000	27,8741	0,0444
446,0000	27,9367	0,0446
447,0000	27,9994	0,0442
448,0000	28,0620	0,0446
449,0000	28,1246	0,0441
450,0000	28,1873	0,0442
451,0000	28,2499	0,0441
452,0000	28,3125	0,0435
453,0000	28,3752	0,0439
454,0000	28,4378	0,0435
455,0000	28,5005	0,0440
456,0000	28,5631	0,0441
457,0000	28,6257	0,0441
458,0000	28,6884	0,0441
459,0000	28,7510	0,0445
460,0000	28,8137	0,0439
461,0000	28,8763	0,0439
462,0000	28,9389	0,0444
463,0000	29,0016	0,0442
464,0000	29,0642	0,0440
465,0000	29,1268	0,0442
466,0000	29,1895	0,0433
467,0000	29,2521	0,0442
468,0000	29,3148	0,0440
469,0000	29,3774	0,0433
470,0000	29,4400	0,0441
471,0000	29,5027	0,0436
472,0000	29,5653	0,0441
473,0000	29,6279	0,0450
474,0000	29,6906	0,0445
475,0000	29,7532	0,0448
476,0000	29,8159	0,0453
477,0000	29,8785	0,0463
478,0000	29,9411	0,0468
479,0000	30,0038	0,0476
480,0000	30,0664	0,0480
481,0000	30,1291	0,0489
482,0000	30,1917	0,0486
483,0000	30,2543	0,0489
484,0000	30,3170	0,0498
485,0000	30,3796	0,0497
486,0000	30,4422	0,0497
487,0000	30,5049	0,0491
488,0000	30,5675	0,0489
489,0000	30,6302	0,0486
490,0000	30,6928	0,0480
491,0000	30,7554	0,0468
492,0000	30,8181	0,0471
493,0000	30,8807	0,0463
494,0000	30,9434	0,0459
495,0000	31,0060	0,0451
496,0000	31,0686	0,0454
497,0000	31,1313	0,0442
498,0000	31,1939	0,0442
499,0000	31,2565	0,0445
500,0000	31,3192	0,0440
501,0000	31,3818	0,0442
502,0000	31,4445	0,0437
503,0000	31,5071	0,0449
504,0000	31,5697	0,0442
505,0000	31,6324	0,0442
506,0000	31,6950	0,0450
507,0000	31,7577	0,0439
508,0000	31,8203	0,0441
509,0000	31,8829	0,0440
510,0000	31,9456	0,0436
511,0000	32,0082	0,0441
512,0000	32,0708	0,0441
513,0000	32,1335	0,0441
514,0000	32,1961	0,0440
515,0000	32,2588	0,0437
516,0000	32,3214	0,0440
517,0000	32,3840	0,0437
518,0000	32,4467	0,0442
519,0000	32,5093	0,0448
520,0000	32,5720	0,0445
521,0000	32,6346	0,0449
522,0000	32,6972	0,0458
523,0000	32,7599	0,0462
524,0000	32,8225	0,0458
525,0000	32,8851	0,0466
526,0000	32,9478	0,0467
527,0000	33,0104	0,0477
528,0000	33,0731	0,0478
529,0000	33,1357	0,0478
530,0000	33,1983	0,0473
531,0000	33,2610	0,0477
532,0000	33,3236	0,0475
533,0000	33,3863	0,0477
534,0000	33,4489	0,0473
535,0000	33,5115	0,0472
536,0000	33,5742	0,0466
537,0000	33,6368	0,0462
538,0000	33,6994	0,0462
539,0000	33,7621	0,0464
540,0000	33,8247	0,0458
541,0000	33,8874	0,0458
542,0000	33,9500	0,0457
543,0000	34,0126	0,0451
544,0000	34,0753	0,0451
545,0000	34,1379	0,0454
546,0000	34,2006	0,0445
547,0000	34,2632	0,0453
548,0000	34,3258	0,0441
549,0000	34,3885	0,0448
550,0000	34,4511	0,0441
551,0000	34,5137	0,0439
552,0000	34,5764	0,0439
553,0000	34,6390	0,0439
554,0000	34,7017	0,0437
555,0000	34,7643	0,0439
556,0000	34,8269	0,0436
557,0000	34,8896	0,0439
558,0000	34,9522	0,0437
559,0000	35,0148	0,0439
560,0000	35,0775	0,0440
561,0000	35,1401	0,0444
562,0000	35,2028	0,0446
563,0000	35,2654	0,0440
564,0000	35,3280	0,0448
565,0000	35,3907	0,0444
566,0000	35,4533	0,0445
567,0000	35,5160	0,0444
568,0000	35,5786	0,0442
569,0000	35,6412	0,0441
570,0000	35,7039	0,0439
571,0000	35,7665	0,0444
572,0000	35,8291	0,0440
573,0000	35,8918	0,0442
574,0000	35,9544	0,0436
575,0000	36,0171	0,0441
576,0000	36,0797	0,0444
577,0000	36,1423	0,0442
578,0000	36,2050	0,0444
579,0000	36,2676	0,0442
580,0000	36,3303	0,0445
581,0000	36,3929	0,0446
582,0000	36,4555	0,0444
583,0000	36,5182	0,0446
584,0000	36,5808	0,0441
585,0000	36,6434	0,0442
586,0000	36,7061	0,0444
587,0000	36,7687	0,0444
588,0000	36,8314	0,0437
589,0000	36,8940	0,0440
590,0000	36,9566	0,0444
591,0000	37,0193	0,0436
592,0000	37,0819	0,0444
593,0000	37,1446	0,0440
594,0000	37,2072	0,0440
595,0000	37,2698	0,0444
596,0000	37,3325	0,0441
597,0000	37,3951	0,0444
598,0000	37,4577	0,0442
599,0000	37,5204	0,0444
600,0000	37,5830	0,0444
601,0000	37,6457	0,0445
602,0000	37,7083	0,0444
603,0000	37,7709	0,0446
604,0000	37,8336	0,0444
605,0000	37,8962	0,0445
606,0000	37,9589	0,0437
607,0000	38,0215	0,0442
608,0000	38,0841	0,0437
609,0000	38,1468	0,0439
610,0000	38,2094	0,0442
611,0000	38,2720	0,0442
612,0000	38,3347	0,0445
613,0000	38,3973	0,0454
614,0000	38,4600	0,0457
615,0000	38,5226	0,0469
616,0000	38,5852	0,0476
617,0000	38,6479	0,0480
618,0000	38,7105	0,0491
619,0000	38,7732	0,0500
620,0000	38,8358	0,0511
621,0000	38,8984	0,0515
622,0000	38,9611	0,0527
623,0000	39,0237	0,0524
624,0000	39,0863	0,0527
625,0000	39,1490	0,0533
626,0000	39,2116	0,0527
627,0000	39,2743	0,0525
628,0000	39,3369	0,0515
629,0000	39,3995	0,0509
630,0000	39,4622	0,0503
631,0000	39,5248	0,0490
632,0000	39,5875	0,0482
633,0000	39,6501	0,0472
634,0000	39,7127	0,0457
635,0000	39,7754	0,0451
636,0000	39,8380	0,0444
637,0000	39,9006	0,0448
638,0000	39,9633	0,0439
639,0000	40,0259	0,0437
640,0000	40,0886	0,0445
641,0000	40,1512	0,0441
642,0000	40,2138	0,0448
643,0000	40,2765	0,0448
644,0000	40,3391	0,0449
645,0000	40,4017	0,0453
646,0000	40,4644	0,0451
647,0000	40,5270	0,0451
648,0000	40,5897	0,0449
649,0000	40,6523	0,0448
650,0000	40,7149	0,0451
651,0000	40,7776	0,0446
652,0000	40,8402	0,0444
653,0000	40,9029	0,0432
654,0000	40,9655	0,0433
655,0000	41,0281	0,0440
656,0000	41,0908	0,0437
657,0000	41,1534	0,0441
658,0000	41,2160	0,0453
659,0000	41,2787	0,0455
660,0000	41,3413	0,0467
661,0000	41,4040	0,0480
662,0000	41,4666	0,0491
663,0000	41,5292	0,0499
664,0000	41,5919	0,0525
665,0000	41,6545	0,0527
666,0000	41,7172	0,0543
667,0000	41,7798	0,0554
668,0000	41,8424	0,0557
669,0000	41,9051	0,0566
670,0000	41,9677	0,0567
671,0000	42,0303	0,0565
672,0000	42,0930	0,0556
673,0000	42,1556	0,0554
674,0000	42,2183	0,0540
675,0000	42,2809	0,0531
676,0000	42,3435	0,0520
677,0000	42,4062	0,0509
678,0000	42,4688	0,0499
679,0000	42,5315	0,0482
680,0000	42,5941	0,0476
681,0000	42,6567	0,0468
682,0000	42,7194	0,0464
683,0000	42,7820	0,0455
684,0000	42,8446	0,0453
685,0000	42,9073	0,0453
686,0000	42,9699	0,0446
687,0000	43,0326	0,0448
688,0000	43,0952	0,0445
689,0000	43,1578	0,0451
690,0000	43,2205	0,0441
691,0000	43,2831	0,0441
692,0000	43,3458	0,0442
693,0000	43,4084	0,0441
694,0000	43,4710	0,0440
695,0000	43,5337	0,0439
696,0000	43,5963	0,0440
697,0000	43,6589	0,0440
698,0000	43,7216	0,0435
699,0000	43,7842	0,0439
700,0000	43,8469	0,0436
701,0000	43,9095	0,0439
702,0000	43,9721	0,0444
703,0000	44,0348	0,0445
704,0000	44,0974	0,0442
705,0000	44,1601	0,0448
706,0000	44,2227	0,0450
707,0000	44,2853	0,0455
708,0000	44,3480	0,0454
709,0000	44,4106	0,0454
710,0000	44,4732	0,0451
711,0000	44,5359	0,0457
712,0000	44,5985	0,0455
713,0000	44,6612	0,0454
714,0000	44,7238	0,0455
715,0000	44,7864	0,0454
716,0000	44,8491	0,0450
717,0000	44,9117	0,0450
718,0000	44,9744	0,0451
719,0000	45,0370	0,0449
720,0000	45,0996	0,0446
721,0000	45,1623	0,0450
722,0000	45,2249	0,0449
723,0000	45,2875	0,0453
724,0000	45,3502	0,0451
725,0000	45,4128	0,0453
726,0000	45,4755	0,0453
727,0000	45,5381	0,0449
728,0000	45,6007	0,0446
729,0000	45,6634	0,0453
730,0000	45,7260	0,0454
731,0000	45,7886	0,0446
732,0000	45,8513	0,0446
733,0000	45,9139	0,0444
734,0000	45,9766	0,0442
735,0000	46,0392	0,0445
736,0000	46,1018	0,0440
737,0000	46,1645	0,0445
738,0000	46,2271	0,0448
739,0000	46,2898	0,0444
740,0000	46,3524	0,0451
741,0000	46,4150	0,0450
742,0000	46,4777	0,0454
743,0000	46,5403	0,0449
744,0000	46,6029	0,0450
745,0000	46,6656	0,0449
746,0000	46,7282	0,0450
747,0000	46,7909	0,0449
748,0000	46,8535	0,0449
749,0000	46,9161	0,0449
750,0000	46,9788	0,0453
751,0000	47,0414	0,0450
752,0000	47,1041	0,0457
753,0000	47,1667	0,0460
754,0000	47,2293	0,0466
755,0000	47,2920	0,0472
756,0000	47,3546	0,0480
757,0000	47,4172	0,0491
758,0000	47,4799	0,0511
759,0000	47,5425	0,0516
760,0000	47,6052	0,0527
761,0000	47,6678	0,0543
762,0000	47,7304	0,0554
763,0000	47,7931	0,0563
764,0000	47,8557	0,0567
765,0000	47,9184	0,0574
766,0000	47,9810	0,0566
767,0000	48,0436	0,0563
768,0000	48,1063	0,0552
769,0000	48,1689	0,0542
770,0000	48,2315	0,0534
771,0000	48,2942	0,0517
772,0000	48,3568	0,0495
773,0000	48,4195	0,0484
774,0000	48,4821	0,0467
775,0000	48,5447	0,0459
776,0000	48,6074	0,0442
777,0000	48,6700	0,0446
778,0000	48,7327	0,0439
779,0000	48,7953	0,0439
780,0000	48,8579	0,0451
781,0000	48,9206	0,0455
782,0000	48,9832	0,0459
783,0000	49,0458	0,0473
784,0000	49,1085	0,0476
785,0000	49,1711	0,0488
786,0000	49,2338	0,0486
787,0000	49,2964	0,0482
788,0000	49,3590	0,0486
789,0000	49,4217	0,0482
790,0000	49,4843	0,0480
791,0000	49,5470	0,0468
792,0000	49,6096	0,0455
793,0000	49,6722	0,0453
794,0000	49,7349	0,0446
795,0000	49,7975	0,0448
796,0000	49,8601	0,0455
797,0000	49,9228	0,0464
798,0000	49,9854	0,0491
799,0000	50,0481	0,0513
800,0000	50,1107	0,0547
801,0000	50,1733	0,0585
802,0000	50,2360	0,0627
803,0000	50,2986	0,0674
804,0000	50,3613	0,0713
805,0000	50,4239	0,0759
806,0000	50,4865	0,0795
807,0000	50,5492	0,0822
808,0000	50,6118	0,0842
809,0000	50,6744	0,0858
810,0000	50,7371	0,0858
811,0000	50,7997	0,0855
812,0000	50,8624	0,0835
813,0000	50,9250	0,0802
814,0000	50,9876	0,0761
815,0000	51,0503	0,0724
816,0000	51,1129	0,0687
817,0000	51,1755	0,0647
818,0000	51,2382	0,0609
819,0000	51,3008	0,0562
820,0000	51,3635	0,0533
821,0000	51,4261	0,0503
822,0000	51,4887	0,0490
823,0000	51,5514	0,0464
824,0000	51,6140	0,0463
825,0000	51,6767	0,0458
826,0000	51,7393	0,0463
827,0000	51,8019	0,0469
828,0000	51,8646	0,0477
829,0000	51,9272	0,0481
830,0000	51,9898	0,0488
831,0000	52,0525	0,0490
832,0000	52,1151	0,0488
833,0000	52,1778	0,0493
834,0000	52,2404	0,0481
835,0000	52,3030	0,0475
836,0000	52,3657	0,0466
837,0000	52,4283	0,0457
