# 09_12_2020_17_19_05_AP_64_Mehrfachspalt_3fachsp_1851
# Messung der Beugung an Spalten und Gittern
# 6.4_Mehrfachspalt_3fachsp
# position(Nr) position(mm) Messwerte(V)
0,0000	0,0000	-0,0205
1,0000	0,0626	0,0053
2,0000	0,1253	0,0057
3,0000	0,1879	0,0062
4,0000	0,2506	0,0058
5,0000	0,3132	0,0063
6,0000	0,3758	0,0058
7,0000	0,4385	0,0071
8,0000	0,5011	0,0063
9,0000	0,5637	0,0066
10,0000	0,6264	0,0070
11,0000	0,6890	0,0074
12,0000	0,7517	0,0070
13,0000	0,8143	0,0068
14,0000	0,8769	0,0071
15,0000	0,9396	0,0075
16,0000	1,0022	0,0074
17,0000	1,0649	0,0079
18,0000	1,1275	0,0080
19,0000	1,1901	0,0071
20,0000	1,2528	0,0077
21,0000	1,3154	0,0075
22,0000	1,3780	0,0075
23,0000	1,4407	0,0077
24,0000	1,5033	0,0067
25,0000	1,5660	0,0076
26,0000	1,6286	0,0075
27,0000	1,6912	0,0074
28,0000	1,7539	0,0067
29,0000	1,8165	0,0065
30,0000	1,8792	0,0066
31,0000	1,9418	0,0059
32,0000	2,0044	0,0066
33,0000	2,0671	0,0067
34,0000	2,1297	0,0062
35,0000	2,1923	0,0067
36,0000	2,2550	0,0054
37,0000	2,3176	0,0056
38,0000	2,3803	0,0059
39,0000	2,4429	0,0052
40,0000	2,5055	0,0058
41,0000	2,5682	0,0062
42,0000	2,6308	0,0059
43,0000	2,6934	0,0061
44,0000	2,7561	0,0058
45,0000	2,8187	0,0061
46,0000	2,8814	0,0059
47,0000	2,9440	0,0057
48,0000	3,0066	0,0053
49,0000	3,0693	0,0058
50,0000	3,1319	0,0059
51,0000	3,1946	0,0050
52,0000	3,2572	0,0061
53,0000	3,3198	0,0056
54,0000	3,3825	0,0054
55,0000	3,4451	0,0054
56,0000	3,5077	0,0053
57,0000	3,5704	0,0045
58,0000	3,6330	0,0059
59,0000	3,6957	0,0053
60,0000	3,7583	0,0061
61,0000	3,8209	0,0058
62,0000	3,8836	0,0054
63,0000	3,9462	0,0058
64,0000	4,0089	0,0053
65,0000	4,0715	0,0039
66,0000	4,1341	0,0057
67,0000	4,1968	0,0062
68,0000	4,2594	0,0067
69,0000	4,3220	0,0065
70,0000	4,3847	0,0066
71,0000	4,4473	0,0059
72,0000	4,5100	0,0059
73,0000	4,5726	0,0046
74,0000	4,6352	0,0057
75,0000	4,6979	0,0057
76,0000	4,7605	0,0054
77,0000	4,8232	0,0059
78,0000	4,8858	0,0059
79,0000	4,9484	0,0063
80,0000	5,0111	0,0066
81,0000	5,0737	0,0063
82,0000	5,1363	0,0077
83,0000	5,1990	0,0072
84,0000	5,2616	0,0067
85,0000	5,3243	0,0070
86,0000	5,3869	0,0061
87,0000	5,4495	0,0067
88,0000	5,5122	0,0071
89,0000	5,5748	0,0066
90,0000	5,6375	0,0067
91,0000	5,7001	0,0061
92,0000	5,7627	0,0075
93,0000	5,8254	0,0070
94,0000	5,8880	0,0061
95,0000	5,9506	0,0061
96,0000	6,0133	0,0063
97,0000	6,0759	0,0059
98,0000	6,1386	0,0059
99,0000	6,2012	0,0056
100,0000	6,2638	0,0058
101,0000	6,3265	0,0058
102,0000	6,3891	0,0056
103,0000	6,4518	0,0056
104,0000	6,5144	0,0057
105,0000	6,5770	0,0059
106,0000	6,6397	0,0050
107,0000	6,7023	0,0049
108,0000	6,7649	0,0043
109,0000	6,8276	0,0052
110,0000	6,8902	0,0052
111,0000	6,9529	0,0058
112,0000	7,0155	0,0053
113,0000	7,0781	0,0056
114,0000	7,1408	0,0057
115,0000	7,2034	0,0045
116,0000	7,2661	0,0054
117,0000	7,3287	0,0044
118,0000	7,3913	0,0045
119,0000	7,4540	0,0044
120,0000	7,5166	0,0039
121,0000	7,5792	0,0045
122,0000	7,6419	0,0032
123,0000	7,7045	0,0037
124,0000	7,7672	0,0035
125,0000	7,8298	0,0050
126,0000	7,8924	0,0039
127,0000	7,9551	0,0031
128,0000	8,0177	0,0032
129,0000	8,0803	0,0036
130,0000	8,1430	0,0039
131,0000	8,2056	0,0035
132,0000	8,2683	0,0031
133,0000	8,3309	0,0044
134,0000	8,3935	0,0039
135,0000	8,4562	0,0044
136,0000	8,5188	0,0040
137,0000	8,5815	0,0043
138,0000	8,6441	0,0043
139,0000	8,7067	0,0044
140,0000	8,7694	0,0045
141,0000	8,8320	0,0046
142,0000	8,8946	0,0041
143,0000	8,9573	0,0044
144,0000	9,0199	0,0044
145,0000	9,0826	0,0041
146,0000	9,1452	0,0050
147,0000	9,2078	0,0053
148,0000	9,2705	0,0045
149,0000	9,3331	0,0044
150,0000	9,3958	0,0053
151,0000	9,4584	0,0054
152,0000	9,5210	0,0059
153,0000	9,5837	0,0049
154,0000	9,6463	0,0053
155,0000	9,7089	0,0052
156,0000	9,7716	0,0045
157,0000	9,8342	0,0053
158,0000	9,8969	0,0050
159,0000	9,9595	0,0056
160,0000	10,0221	0,0056
161,0000	10,0848	0,0053
162,0000	10,1474	0,0050
163,0000	10,2101	0,0057
164,0000	10,2727	0,0052
165,0000	10,3353	0,0049
166,0000	10,3980	0,0065
167,0000	10,4606	0,0049
168,0000	10,5232	0,0056
169,0000	10,5859	0,0052
170,0000	10,6485	0,0057
171,0000	10,7112	0,0061
172,0000	10,7738	0,0056
173,0000	10,8364	0,0063
174,0000	10,8991	0,0059
175,0000	10,9617	0,0061
176,0000	11,0244	0,0061
177,0000	11,0870	0,0061
178,0000	11,1496	0,0054
179,0000	11,2123	0,0057
180,0000	11,2749	0,0058
181,0000	11,3375	0,0053
182,0000	11,4002	0,0054
183,0000	11,4628	0,0054
184,0000	11,5255	0,0053
185,0000	11,5881	0,0054
186,0000	11,6507	0,0057
187,0000	11,7134	0,0053
188,0000	11,7760	0,0049
189,0000	11,8387	0,0053
190,0000	11,9013	0,0063
191,0000	11,9639	0,0056
192,0000	12,0266	0,0057
193,0000	12,0892	0,0061
194,0000	12,1518	0,0061
195,0000	12,2145	0,0059
196,0000	12,2771	0,0058
197,0000	12,3398	0,0057
198,0000	12,4024	0,0058
199,0000	12,4650	0,0058
200,0000	12,5277	0,0052
201,0000	12,5903	0,0057
202,0000	12,6530	0,0053
203,0000	12,7156	0,0065
204,0000	12,7782	0,0049
205,0000	12,8409	0,0061
206,0000	12,9035	0,0063
207,0000	12,9661	0,0065
208,0000	13,0288	0,0066
209,0000	13,0914	0,0058
210,0000	13,1541	0,0058
211,0000	13,2167	0,0062
212,0000	13,2793	0,0061
213,0000	13,3420	0,0058
214,0000	13,4046	0,0063
215,0000	13,4672	0,0063
216,0000	13,5299	0,0059
217,0000	13,5925	0,0070
218,0000	13,6552	0,0075
219,0000	13,7178	0,0076
220,0000	13,7804	0,0075
221,0000	13,8431	0,0075
222,0000	13,9057	0,0067
223,0000	13,9684	0,0076
224,0000	14,0310	0,0071
225,0000	14,0936	0,0067
226,0000	14,1563	0,0079
227,0000	14,2189	0,0080
228,0000	14,2815	0,0087
229,0000	14,3442	0,0066
230,0000	14,4068	0,0084
231,0000	14,4695	0,0083
232,0000	14,5321	0,0088
233,0000	14,5947	0,0075
234,0000	14,6574	0,0079
235,0000	14,7200	0,0081
236,0000	14,7827	0,0076
237,0000	14,8453	0,0075
238,0000	14,9079	0,0074
239,0000	14,9706	0,0071
240,0000	15,0332	0,0072
241,0000	15,0958	0,0070
242,0000	15,1585	0,0072
243,0000	15,2211	0,0074
244,0000	15,2838	0,0070
245,0000	15,3464	0,0072
246,0000	15,4090	0,0065
247,0000	15,4717	0,0063
248,0000	15,5343	0,0054
249,0000	15,5970	0,0062
250,0000	15,6596	0,0057
251,0000	15,7222	0,0065
252,0000	15,7849	0,0057
253,0000	15,8475	0,0063
254,0000	15,9101	0,0061
255,0000	15,9728	0,0056
256,0000	16,0354	0,0062
257,0000	16,0981	0,0059
258,0000	16,1607	0,0062
259,0000	16,2233	0,0057
260,0000	16,2860	0,0057
261,0000	16,3486	0,0056
262,0000	16,4113	0,0050
263,0000	16,4739	0,0056
264,0000	16,5365	0,0056
265,0000	16,5992	0,0061
266,0000	16,6618	0,0061
267,0000	16,7244	0,0065
268,0000	16,7871	0,0052
269,0000	16,8497	0,0061
270,0000	16,9124	0,0054
271,0000	16,9750	0,0054
272,0000	17,0376	0,0057
273,0000	17,1003	0,0057
274,0000	17,1629	0,0067
275,0000	17,2256	0,0061
276,0000	17,2882	0,0058
277,0000	17,3508	0,0058
278,0000	17,4135	0,0053
279,0000	17,4761	0,0062
280,0000	17,5387	0,0066
281,0000	17,6014	0,0062
282,0000	17,6640	0,0066
283,0000	17,7267	0,0066
284,0000	17,7893	0,0068
285,0000	17,8519	0,0070
286,0000	17,9146	0,0070
287,0000	17,9772	0,0071
288,0000	18,0399	0,0087
289,0000	18,1025	0,0081
290,0000	18,1651	0,0085
291,0000	18,2278	0,0096
292,0000	18,2904	0,0096
293,0000	18,3530	0,0094
294,0000	18,4157	0,0094
295,0000	18,4783	0,0103
296,0000	18,5410	0,0102
297,0000	18,6036	0,0108
298,0000	18,6662	0,0105
299,0000	18,7289	0,0118
300,0000	18,7915	0,0106
301,0000	18,8541	0,0102
302,0000	18,9168	0,0099
303,0000	18,9794	0,0096
304,0000	19,0421	0,0097
305,0000	19,1047	0,0106
306,0000	19,1673	0,0096
307,0000	19,2300	0,0096
308,0000	19,2926	0,0087
309,0000	19,3553	0,0087
310,0000	19,4179	0,0084
311,0000	19,4805	0,0089
312,0000	19,5432	0,0081
313,0000	19,6058	0,0075
314,0000	19,6684	0,0063
315,0000	19,7311	0,0068
316,0000	19,7937	0,0065
317,0000	19,8564	0,0065
318,0000	19,9190	0,0065
319,0000	19,9816	0,0065
320,0000	20,0443	0,0062
321,0000	20,1069	0,0058
322,0000	20,1696	0,0067
323,0000	20,2322	0,0067
324,0000	20,2948	0,0057
325,0000	20,3575	0,0063
326,0000	20,4201	0,0058
327,0000	20,4827	0,0058
328,0000	20,5454	0,0054
329,0000	20,6080	0,0065
330,0000	20,6707	0,0057
331,0000	20,7333	0,0057
332,0000	20,7959	0,0059
333,0000	20,8586	0,0063
334,0000	20,9212	0,0057
335,0000	20,9839	0,0052
336,0000	21,0465	0,0056
337,0000	21,1091	0,0058
338,0000	21,1718	0,0067
339,0000	21,2344	0,0059
340,0000	21,2970	0,0054
341,0000	21,3597	0,0054
342,0000	21,4223	0,0053
343,0000	21,4850	0,0052
344,0000	21,5476	0,0050
345,0000	21,6102	0,0058
346,0000	21,6729	0,0052
347,0000	21,7355	0,0058
348,0000	21,7982	0,0049
349,0000	21,8608	0,0059
350,0000	21,9234	0,0057
351,0000	21,9861	0,0062
352,0000	22,0487	0,0071
353,0000	22,1113	0,0063
354,0000	22,1740	0,0066
355,0000	22,2366	0,0062
356,0000	22,2993	0,0067
357,0000	22,3619	0,0068
358,0000	22,4245	0,0061
359,0000	22,4872	0,0068
360,0000	22,5498	0,0061
361,0000	22,6125	0,0076
362,0000	22,6751	0,0070
363,0000	22,7377	0,0074
364,0000	22,8004	0,0068
365,0000	22,8630	0,0071
366,0000	22,9256	0,0065
367,0000	22,9883	0,0066
368,0000	23,0509	0,0072
369,0000	23,1136	0,0066
370,0000	23,1762	0,0072
371,0000	23,2388	0,0071
372,0000	23,3015	0,0062
373,0000	23,3641	0,0070
374,0000	23,4268	0,0057
375,0000	23,4894	0,0065
376,0000	23,5520	0,0061
377,0000	23,6147	0,0068
378,0000	23,6773	0,0061
379,0000	23,7399	0,0063
380,0000	23,8026	0,0067
381,0000	23,8652	0,0057
382,0000	23,9279	0,0056
383,0000	23,9905	0,0056
384,0000	24,0531	0,0067
385,0000	24,1158	0,0063
386,0000	24,1784	0,0056
387,0000	24,2410	0,0061
388,0000	24,3037	0,0062
389,0000	24,3663	0,0061
390,0000	24,4290	0,0065
391,0000	24,4916	0,0061
392,0000	24,5542	0,0061
393,0000	24,6169	0,0061
394,0000	24,6795	0,0050
395,0000	24,7422	0,0059
396,0000	24,8048	0,0056
397,0000	24,8674	0,0053
398,0000	24,9301	0,0057
399,0000	24,9927	0,0058
400,0000	25,0553	0,0061
401,0000	25,1180	0,0053
402,0000	25,1806	0,0052
403,0000	25,2433	0,0058
404,0000	25,3059	0,0061
405,0000	25,3685	0,0062
406,0000	25,4312	0,0063
407,0000	25,4938	0,0067
408,0000	25,5565	0,0063
409,0000	25,6191	0,0059
410,0000	25,6817	0,0059
411,0000	25,7444	0,0057
412,0000	25,8070	0,0058
413,0000	25,8696	0,0070
414,0000	25,9323	0,0061
415,0000	25,9949	0,0063
416,0000	26,0576	0,0063
417,0000	26,1202	0,0066
418,0000	26,1828	0,0067
419,0000	26,2455	0,0062
420,0000	26,3081	0,0066
421,0000	26,3708	0,0058
422,0000	26,4334	0,0057
423,0000	26,4960	0,0065
424,0000	26,5587	0,0059
425,0000	26,6213	0,0061
426,0000	26,6839	0,0059
427,0000	26,7466	0,0066
428,0000	26,8092	0,0058
429,0000	26,8719	0,0065
430,0000	26,9345	0,0066
431,0000	26,9971	0,0070
432,0000	27,0598	0,0079
433,0000	27,1224	0,0070
434,0000	27,1851	0,0074
435,0000	27,2477	0,0072
436,0000	27,3103	0,0084
437,0000	27,3730	0,0084
438,0000	27,4356	0,0087
439,0000	27,4982	0,0085
440,0000	27,5609	0,0090
441,0000	27,6235	0,0094
442,0000	27,6862	0,0093
443,0000	27,7488	0,0098
444,0000	27,8114	0,0102
445,0000	27,8741	0,0096
446,0000	27,9367	0,0094
447,0000	27,9994	0,0096
448,0000	28,0620	0,0098
449,0000	28,1246	0,0098
450,0000	28,1873	0,0094
451,0000	28,2499	0,0089
452,0000	28,3125	0,0094
453,0000	28,3752	0,0085
454,0000	28,4378	0,0087
455,0000	28,5005	0,0087
456,0000	28,5631	0,0080
457,0000	28,6257	0,0081
458,0000	28,6884	0,0068
459,0000	28,7510	0,0079
460,0000	28,8137	0,0077
461,0000	28,8763	0,0068
462,0000	28,9389	0,0063
463,0000	29,0016	0,0074
464,0000	29,0642	0,0068
465,0000	29,1268	0,0067
466,0000	29,1895	0,0070
467,0000	29,2521	0,0063
468,0000	29,3148	0,0070
469,0000	29,3774	0,0066
470,0000	29,4400	0,0074
471,0000	29,5027	0,0074
472,0000	29,5653	0,0070
473,0000	29,6279	0,0074
474,0000	29,6906	0,0074
475,0000	29,7532	0,0070
476,0000	29,8159	0,0080
477,0000	29,8785	0,0083
478,0000	29,9411	0,0072
479,0000	30,0038	0,0074
480,0000	30,0664	0,0071
481,0000	30,1291	0,0068
482,0000	30,1917	0,0074
483,0000	30,2543	0,0063
484,0000	30,3170	0,0062
485,0000	30,3796	0,0068
486,0000	30,4422	0,0074
487,0000	30,5049	0,0065
488,0000	30,5675	0,0071
489,0000	30,6302	0,0074
490,0000	30,6928	0,0074
491,0000	30,7554	0,0080
492,0000	30,8181	0,0083
493,0000	30,8807	0,0087
494,0000	30,9434	0,0085
495,0000	31,0060	0,0094
496,0000	31,0686	0,0088
497,0000	31,1313	0,0101
498,0000	31,1939	0,0107
499,0000	31,2565	0,0121
500,0000	31,3192	0,0128
501,0000	31,3818	0,0134
502,0000	31,4445	0,0139
503,0000	31,5071	0,0156
504,0000	31,5697	0,0150
505,0000	31,6324	0,0174
506,0000	31,6950	0,0173
507,0000	31,7577	0,0176
508,0000	31,8203	0,0182
509,0000	31,8829	0,0190
510,0000	31,9456	0,0192
511,0000	32,0082	0,0192
512,0000	32,0708	0,0195
513,0000	32,1335	0,0196
514,0000	32,1961	0,0190
515,0000	32,2588	0,0191
516,0000	32,3214	0,0185
517,0000	32,3840	0,0177
518,0000	32,4467	0,0176
519,0000	32,5093	0,0169
520,0000	32,5720	0,0167
521,0000	32,6346	0,0152
522,0000	32,6972	0,0147
523,0000	32,7599	0,0139
524,0000	32,8225	0,0128
525,0000	32,8851	0,0124
526,0000	32,9478	0,0112
527,0000	33,0104	0,0107
528,0000	33,0731	0,0099
529,0000	33,1357	0,0089
530,0000	33,1983	0,0088
531,0000	33,2610	0,0084
532,0000	33,3236	0,0079
533,0000	33,3863	0,0083
534,0000	33,4489	0,0070
535,0000	33,5115	0,0072
536,0000	33,5742	0,0071
537,0000	33,6368	0,0074
538,0000	33,6994	0,0068
539,0000	33,7621	0,0071
540,0000	33,8247	0,0068
541,0000	33,8874	0,0072
542,0000	33,9500	0,0080
543,0000	34,0126	0,0077
544,0000	34,0753	0,0080
545,0000	34,1379	0,0071
546,0000	34,2006	0,0074
547,0000	34,2632	0,0074
548,0000	34,3258	0,0076
549,0000	34,3885	0,0072
550,0000	34,4511	0,0080
551,0000	34,5137	0,0080
552,0000	34,5764	0,0075
553,0000	34,6390	0,0074
554,0000	34,7017	0,0067
555,0000	34,7643	0,0070
556,0000	34,8269	0,0062
557,0000	34,8896	0,0079
558,0000	34,9522	0,0075
559,0000	35,0148	0,0070
560,0000	35,0775	0,0071
561,0000	35,1401	0,0074
562,0000	35,2028	0,0083
563,0000	35,2654	0,0084
564,0000	35,3280	0,0087
565,0000	35,3907	0,0085
566,0000	35,4533	0,0088
567,0000	35,5160	0,0098
568,0000	35,5786	0,0099
569,0000	35,6412	0,0097
570,0000	35,7039	0,0111
571,0000	35,7665	0,0119
572,0000	35,8291	0,0121
573,0000	35,8918	0,0121
574,0000	35,9544	0,0125
575,0000	36,0171	0,0127
576,0000	36,0797	0,0130
577,0000	36,1423	0,0134
578,0000	36,2050	0,0137
579,0000	36,2676	0,0133
580,0000	36,3303	0,0142
581,0000	36,3929	0,0130
582,0000	36,4555	0,0124
583,0000	36,5182	0,0125
584,0000	36,5808	0,0128
585,0000	36,6434	0,0124
586,0000	36,7061	0,0114
587,0000	36,7687	0,0112
588,0000	36,8314	0,0115
589,0000	36,8940	0,0112
590,0000	36,9566	0,0098
591,0000	37,0193	0,0098
592,0000	37,0819	0,0081
593,0000	37,1446	0,0089
594,0000	37,2072	0,0085
595,0000	37,2698	0,0080
596,0000	37,3325	0,0077
597,0000	37,3951	0,0072
598,0000	37,4577	0,0075
599,0000	37,5204	0,0072
600,0000	37,5830	0,0067
601,0000	37,6457	0,0067
602,0000	37,7083	0,0062
603,0000	37,7709	0,0072
604,0000	37,8336	0,0059
605,0000	37,8962	0,0074
606,0000	37,9589	0,0065
607,0000	38,0215	0,0072
608,0000	38,0841	0,0070
609,0000	38,1468	0,0070
610,0000	38,2094	0,0066
611,0000	38,2720	0,0062
612,0000	38,3347	0,0070
613,0000	38,3973	0,0062
614,0000	38,4600	0,0071
615,0000	38,5226	0,0066
616,0000	38,5852	0,0072
617,0000	38,6479	0,0066
618,0000	38,7105	0,0074
619,0000	38,7732	0,0072
620,0000	38,8358	0,0070
621,0000	38,8984	0,0066
622,0000	38,9611	0,0065
623,0000	39,0237	0,0054
624,0000	39,0863	0,0067
625,0000	39,1490	0,0066
626,0000	39,2116	0,0068
627,0000	39,2743	0,0066
628,0000	39,3369	0,0074
629,0000	39,3995	0,0063
630,0000	39,4622	0,0070
631,0000	39,5248	0,0068
632,0000	39,5875	0,0067
633,0000	39,6501	0,0071
634,0000	39,7127	0,0068
635,0000	39,7754	0,0062
636,0000	39,8380	0,0072
637,0000	39,9006	0,0071
638,0000	39,9633	0,0070
639,0000	40,0259	0,0061
640,0000	40,0886	0,0075
641,0000	40,1512	0,0072
642,0000	40,2138	0,0063
643,0000	40,2765	0,0063
644,0000	40,3391	0,0071
645,0000	40,4017	0,0080
646,0000	40,4644	0,0084
647,0000	40,5270	0,0088
648,0000	40,5897	0,0083
649,0000	40,6523	0,0084
650,0000	40,7149	0,0079
651,0000	40,7776	0,0094
652,0000	40,8402	0,0096
653,0000	40,9029	0,0096
654,0000	40,9655	0,0108
655,0000	41,0281	0,0111
656,0000	41,0908	0,0111
657,0000	41,1534	0,0114
658,0000	41,2160	0,0115
659,0000	41,2787	0,0116
660,0000	41,3413	0,0120
661,0000	41,4040	0,0124
662,0000	41,4666	0,0124
663,0000	41,5292	0,0120
664,0000	41,5919	0,0120
665,0000	41,6545	0,0114
666,0000	41,7172	0,0107
667,0000	41,7798	0,0110
668,0000	41,8424	0,0099
669,0000	41,9051	0,0101
670,0000	41,9677	0,0101
671,0000	42,0303	0,0099
672,0000	42,0930	0,0096
673,0000	42,1556	0,0096
674,0000	42,2183	0,0097
675,0000	42,2809	0,0080
676,0000	42,3435	0,0096
677,0000	42,4062	0,0089
678,0000	42,4688	0,0092
679,0000	42,5315	0,0085
680,0000	42,5941	0,0090
681,0000	42,6567	0,0093
682,0000	42,7194	0,0097
683,0000	42,7820	0,0097
684,0000	42,8446	0,0102
685,0000	42,9073	0,0103
686,0000	42,9699	0,0105
687,0000	43,0326	0,0108
688,0000	43,0952	0,0101
689,0000	43,1578	0,0108
690,0000	43,2205	0,0094
691,0000	43,2831	0,0090
692,0000	43,3458	0,0108
693,0000	43,4084	0,0093
694,0000	43,4710	0,0098
695,0000	43,5337	0,0090
696,0000	43,5963	0,0090
697,0000	43,6589	0,0096
698,0000	43,7216	0,0092
699,0000	43,7842	0,0098
700,0000	43,8469	0,0105
701,0000	43,9095	0,0119
702,0000	43,9721	0,0125
703,0000	44,0348	0,0143
704,0000	44,0974	0,0156
705,0000	44,1601	0,0186
706,0000	44,2227	0,0200
707,0000	44,2853	0,0243
708,0000	44,3480	0,0278
709,0000	44,4106	0,0320
710,0000	44,4732	0,0367
711,0000	44,5359	0,0422
712,0000	44,5985	0,0470
713,0000	44,6612	0,0519
714,0000	44,7238	0,0566
715,0000	44,7864	0,0625
716,0000	44,8491	0,0673
717,0000	44,9117	0,0732
718,0000	44,9744	0,0776
719,0000	45,0370	0,0824
720,0000	45,0996	0,0869
721,0000	45,1623	0,0894
722,0000	45,2249	0,0923
723,0000	45,2875	0,0948
724,0000	45,3502	0,0954
725,0000	45,4128	0,0957
726,0000	45,4755	0,0956
727,0000	45,5381	0,0940
728,0000	45,6007	0,0914
729,0000	45,6634	0,0883
730,0000	45,7260	0,0855
731,0000	45,7886	0,0812
732,0000	45,8513	0,0763
733,0000	45,9139	0,0712
734,0000	45,9766	0,0651
735,0000	46,0392	0,0603
736,0000	46,1018	0,0541
737,0000	46,1645	0,0488
738,0000	46,2271	0,0437
739,0000	46,2898	0,0387
740,0000	46,3524	0,0347
741,0000	46,4150	0,0298
742,0000	46,4777	0,0263
743,0000	46,5403	0,0232
744,0000	46,6029	0,0205
745,0000	46,6656	0,0189
746,0000	46,7282	0,0169
747,0000	46,7909	0,0161
748,0000	46,8535	0,0151
749,0000	46,9161	0,0163
750,0000	46,9788	0,0159
751,0000	47,0414	0,0173
752,0000	47,1041	0,0177
753,0000	47,1667	0,0182
754,0000	47,2293	0,0189
755,0000	47,2920	0,0196
756,0000	47,3546	0,0198
757,0000	47,4172	0,0212
758,0000	47,4799	0,0216
759,0000	47,5425	0,0208
760,0000	47,6052	0,0201
761,0000	47,6678	0,0200
762,0000	47,7304	0,0190
763,0000	47,7931	0,0189
764,0000	47,8557	0,0169
765,0000	47,9184	0,0170
766,0000	47,9810	0,0165
767,0000	48,0436	0,0164
768,0000	48,1063	0,0161
769,0000	48,1689	0,0167
770,0000	48,2315	0,0182
771,0000	48,2942	0,0204
772,0000	48,3568	0,0236
773,0000	48,4195	0,0280
774,0000	48,4821	0,0337
775,0000	48,5447	0,0412
776,0000	48,6074	0,0492
777,0000	48,6700	0,0576
778,0000	48,7327	0,0683
779,0000	48,7953	0,0794
780,0000	48,8579	0,0920
781,0000	48,9206	0,1062
782,0000	48,9832	0,1204
783,0000	49,0458	0,1341
784,0000	49,1085	0,1493
785,0000	49,1711	0,1639
786,0000	49,2338	0,1784
787,0000	49,2964	0,1905
788,0000	49,3590	0,2029
789,0000	49,4217	0,2136
790,0000	49,4843	0,2239
791,0000	49,5470	0,2320
792,0000	49,6096	0,2384
793,0000	49,6722	0,2424
794,0000	49,7349	0,2441
795,0000	49,7975	0,2450
796,0000	49,8601	0,2420
797,0000	49,9228	0,2380
798,0000	49,9854	0,2320
799,0000	50,0481	0,2234
800,0000	50,1107	0,2134
801,0000	50,1733	0,2016
802,0000	50,2360	0,1882
