# 09_12_2020_16_51_06_AP_63_Gitter_1851
# Messung der Beugung an Spalten und Gittern
# 6.3_Gitter
# position(Nr) position(mm) Messwerte(V)
0,0000	0,0000	0,0075
1,0000	0,0626	0,0072
2,0000	0,1253	0,0070
3,0000	0,1879	0,0076
4,0000	0,2506	0,0072
5,0000	0,3132	0,0072
6,0000	0,3758	0,0072
7,0000	0,4385	0,0083
8,0000	0,5011	0,0085
9,0000	0,5637	0,0079
10,0000	0,6264	0,0088
11,0000	0,6890	0,0079
12,0000	0,7517	0,0074
13,0000	0,8143	0,0072
14,0000	0,8769	0,0079
15,0000	0,9396	0,0079
16,0000	1,0022	0,0070
17,0000	1,0649	0,0066
18,0000	1,1275	0,0074
19,0000	1,1901	0,0076
20,0000	1,2528	0,0062
21,0000	1,3154	0,0066
22,0000	1,3780	0,0066
23,0000	1,4407	0,0059
24,0000	1,5033	0,0075
25,0000	1,5660	0,0067
26,0000	1,6286	0,0068
27,0000	1,6912	0,0066
28,0000	1,7539	0,0059
29,0000	1,8165	0,0059
30,0000	1,8792	0,0074
31,0000	1,9418	0,0065
32,0000	2,0044	0,0067
33,0000	2,0671	0,0066
34,0000	2,1297	0,0077
35,0000	2,1923	0,0068
36,0000	2,2550	0,0061
37,0000	2,3176	0,0070
38,0000	2,3803	0,0067
39,0000	2,4429	0,0063
40,0000	2,5055	0,0062
41,0000	2,5682	0,0063
42,0000	2,6308	0,0065
43,0000	2,6934	0,0068
44,0000	2,7561	0,0065
45,0000	2,8187	0,0063
46,0000	2,8814	0,0068
47,0000	2,9440	0,0066
48,0000	3,0066	0,0066
49,0000	3,0693	0,0065
50,0000	3,1319	0,0074
51,0000	3,1946	0,0062
52,0000	3,2572	0,0063
53,0000	3,3198	0,0066
54,0000	3,3825	0,0071
55,0000	3,4451	0,0067
56,0000	3,5077	0,0068
57,0000	3,5704	0,0059
58,0000	3,6330	0,0065
59,0000	3,6957	0,0071
60,0000	3,7583	0,0063
61,0000	3,8209	0,0072
62,0000	3,8836	0,0063
63,0000	3,9462	0,0072
64,0000	4,0089	0,0063
65,0000	4,0715	0,0065
66,0000	4,1341	0,0059
67,0000	4,1968	0,0068
68,0000	4,2594	0,0068
69,0000	4,3220	0,0059
70,0000	4,3847	0,0067
71,0000	4,4473	0,0065
72,0000	4,5100	0,0067
73,0000	4,5726	0,0063
74,0000	4,6352	0,0062
75,0000	4,6979	0,0067
76,0000	4,7605	0,0067
77,0000	4,8232	0,0059
78,0000	4,8858	0,0065
79,0000	4,9484	0,0062
80,0000	5,0111	0,0067
81,0000	5,0737	0,0068
82,0000	5,1363	0,0063
83,0000	5,1990	0,0075
84,0000	5,2616	0,0061
85,0000	5,3243	0,0070
86,0000	5,3869	0,0058
87,0000	5,4495	0,0068
88,0000	5,5122	0,0065
89,0000	5,5748	0,0068
90,0000	5,6375	0,0062
91,0000	5,7001	0,0072
92,0000	5,7627	0,0061
93,0000	5,8254	0,0072
94,0000	5,8880	0,0067
95,0000	5,9506	0,0063
96,0000	6,0133	0,0070
97,0000	6,0759	0,0070
98,0000	6,1386	0,0074
99,0000	6,2012	0,0070
100,0000	6,2638	0,0076
101,0000	6,3265	0,0071
102,0000	6,3891	0,0062
103,0000	6,4518	0,0059
104,0000	6,5144	0,0070
105,0000	6,5770	0,0063
106,0000	6,6397	0,0061
107,0000	6,7023	0,0068
108,0000	6,7649	0,0063
109,0000	6,8276	0,0062
110,0000	6,8902	0,0057
111,0000	6,9529	0,0071
112,0000	7,0155	0,0072
113,0000	7,0781	0,0058
114,0000	7,1408	0,0067
115,0000	7,2034	0,0061
116,0000	7,2661	0,0072
117,0000	7,3287	0,0062
118,0000	7,3913	0,0061
119,0000	7,4540	0,0071
120,0000	7,5166	0,0070
121,0000	7,5792	0,0065
122,0000	7,6419	0,0063
123,0000	7,7045	0,0071
124,0000	7,7672	0,0065
125,0000	7,8298	0,0068
126,0000	7,8924	0,0062
127,0000	7,9551	0,0063
128,0000	8,0177	0,0072
129,0000	8,0803	0,0068
130,0000	8,1430	0,0058
131,0000	8,2056	0,0070
132,0000	8,2683	0,0068
133,0000	8,3309	0,0065
134,0000	8,3935	0,0075
135,0000	8,4562	0,0076
136,0000	8,5188	0,0068
137,0000	8,5815	0,0063
138,0000	8,6441	0,0068
139,0000	8,7067	0,0063
140,0000	8,7694	0,0071
141,0000	8,8320	0,0068
142,0000	8,8946	0,0062
143,0000	8,9573	0,0074
144,0000	9,0199	0,0077
145,0000	9,0826	0,0068
146,0000	9,1452	0,0067
147,0000	9,2078	0,0068
148,0000	9,2705	0,0070
149,0000	9,3331	0,0067
150,0000	9,3958	0,0068
151,0000	9,4584	0,0066
152,0000	9,5210	0,0079
153,0000	9,5837	0,0065
154,0000	9,6463	0,0065
155,0000	9,7089	0,0070
156,0000	9,7716	0,0068
157,0000	9,8342	0,0061
158,0000	9,8969	0,0059
159,0000	9,9595	0,0066
160,0000	10,0221	0,0068
161,0000	10,0848	0,0062
162,0000	10,1474	0,0070
163,0000	10,2101	0,0065
164,0000	10,2727	0,0065
165,0000	10,3353	0,0063
166,0000	10,3980	0,0063
167,0000	10,4606	0,0071
168,0000	10,5232	0,0062
169,0000	10,5859	0,0067
170,0000	10,6485	0,0070
171,0000	10,7112	0,0061
172,0000	10,7738	0,0066
173,0000	10,8364	0,0067
174,0000	10,8991	0,0066
175,0000	10,9617	0,0062
176,0000	11,0244	0,0071
177,0000	11,0870	0,0068
178,0000	11,1496	0,0063
179,0000	11,2123	0,0072
180,0000	11,2749	0,0062
181,0000	11,3375	0,0070
182,0000	11,4002	0,0074
183,0000	11,4628	0,0067
184,0000	11,5255	0,0067
185,0000	11,5881	0,0067
186,0000	11,6507	0,0061
187,0000	11,7134	0,0067
188,0000	11,7760	0,0066
189,0000	11,8387	0,0074
190,0000	11,9013	0,0057
191,0000	11,9639	0,0067
192,0000	12,0266	0,0070
193,0000	12,0892	0,0065
194,0000	12,1518	0,0063
195,0000	12,2145	0,0070
196,0000	12,2771	0,0074
197,0000	12,3398	0,0071
198,0000	12,4024	0,0059
199,0000	12,4650	0,0068
200,0000	12,5277	0,0065
201,0000	12,5903	0,0071
202,0000	12,6530	0,0062
203,0000	12,7156	0,0075
204,0000	12,7782	0,0072
205,0000	12,8409	0,0074
206,0000	12,9035	0,0081
207,0000	12,9661	0,0085
208,0000	13,0288	0,0077
209,0000	13,0914	0,0080
210,0000	13,1541	0,0087
211,0000	13,2167	0,0102
212,0000	13,2793	0,0114
213,0000	13,3420	0,0132
214,0000	13,4046	0,0151
215,0000	13,4672	0,0167
216,0000	13,5299	0,0182
217,0000	13,5925	0,0181
218,0000	13,6552	0,0195
219,0000	13,7178	0,0214
220,0000	13,7804	0,0220
221,0000	13,8431	0,0230
222,0000	13,9057	0,0239
223,0000	13,9684	0,0239
224,0000	14,0310	0,0223
225,0000	14,0936	0,0222
226,0000	14,1563	0,0204
227,0000	14,2189	0,0194
228,0000	14,2815	0,0176
229,0000	14,3442	0,0165
230,0000	14,4068	0,0158
231,0000	14,4695	0,0136
232,0000	14,5321	0,0138
233,0000	14,5947	0,0119
234,0000	14,6574	0,0099
235,0000	14,7200	0,0084
236,0000	14,7827	0,0089
237,0000	14,8453	0,0084
238,0000	14,9079	0,0074
239,0000	14,9706	0,0075
240,0000	15,0332	0,0074
241,0000	15,0958	0,0068
242,0000	15,1585	0,0065
243,0000	15,2211	0,0063
244,0000	15,2838	0,0066
245,0000	15,3464	0,0065
246,0000	15,4090	0,0067
247,0000	15,4717	0,0075
248,0000	15,5343	0,0066
249,0000	15,5970	0,0068
250,0000	15,6596	0,0065
251,0000	15,7222	0,0066
252,0000	15,7849	0,0067
253,0000	15,8475	0,0065
254,0000	15,9101	0,0065
255,0000	15,9728	0,0070
256,0000	16,0354	0,0070
257,0000	16,0981	0,0072
258,0000	16,1607	0,0067
259,0000	16,2233	0,0071
260,0000	16,2860	0,0070
261,0000	16,3486	0,0072
262,0000	16,4113	0,0068
263,0000	16,4739	0,0066
264,0000	16,5365	0,0075
265,0000	16,5992	0,0063
266,0000	16,6618	0,0067
267,0000	16,7244	0,0067
268,0000	16,7871	0,0057
269,0000	16,8497	0,0066
270,0000	16,9124	0,0074
271,0000	16,9750	0,0066
272,0000	17,0376	0,0058
273,0000	17,1003	0,0068
274,0000	17,1629	0,0070
275,0000	17,2256	0,0067
276,0000	17,2882	0,0065
277,0000	17,3508	0,0074
278,0000	17,4135	0,0067
279,0000	17,4761	0,0070
280,0000	17,5387	0,0066
281,0000	17,6014	0,0065
282,0000	17,6640	0,0072
283,0000	17,7267	0,0061
284,0000	17,7893	0,0068
285,0000	17,8519	0,0074
286,0000	17,9146	0,0058
287,0000	17,9772	0,0072
288,0000	18,0399	0,0068
289,0000	18,1025	0,0065
290,0000	18,1651	0,0066
291,0000	18,2278	0,0062
292,0000	18,2904	0,0071
293,0000	18,3530	0,0066
294,0000	18,4157	0,0066
295,0000	18,4783	0,0068
296,0000	18,5410	0,0068
297,0000	18,6036	0,0070
298,0000	18,6662	0,0070
299,0000	18,7289	0,0063
300,0000	18,7915	0,0062
301,0000	18,8541	0,0062
302,0000	18,9168	0,0066
303,0000	18,9794	0,0066
304,0000	19,0421	0,0062
305,0000	19,1047	0,0067
306,0000	19,1673	0,0063
307,0000	19,2300	0,0068
308,0000	19,2926	0,0061
309,0000	19,3553	0,0074
310,0000	19,4179	0,0067
311,0000	19,4805	0,0063
312,0000	19,5432	0,0071
313,0000	19,6058	0,0063
314,0000	19,6684	0,0076
315,0000	19,7311	0,0066
316,0000	19,7937	0,0066
317,0000	19,8564	0,0072
318,0000	19,9190	0,0071
319,0000	19,9816	0,0061
320,0000	20,0443	0,0074
321,0000	20,1069	0,0066
322,0000	20,1696	0,0065
323,0000	20,2322	0,0071
324,0000	20,2948	0,0070
325,0000	20,3575	0,0070
326,0000	20,4201	0,0072
327,0000	20,4827	0,0066
328,0000	20,5454	0,0063
329,0000	20,6080	0,0066
330,0000	20,6707	0,0072
331,0000	20,7333	0,0067
332,0000	20,7959	0,0067
333,0000	20,8586	0,0067
334,0000	20,9212	0,0062
335,0000	20,9839	0,0070
336,0000	21,0465	0,0067
337,0000	21,1091	0,0062
338,0000	21,1718	0,0071
339,0000	21,2344	0,0066
340,0000	21,2970	0,0071
341,0000	21,3597	0,0075
342,0000	21,4223	0,0071
343,0000	21,4850	0,0079
344,0000	21,5476	0,0070
345,0000	21,6102	0,0075
346,0000	21,6729	0,0077
347,0000	21,7355	0,0067
348,0000	21,7982	0,0062
349,0000	21,8608	0,0070
350,0000	21,9234	0,0070
351,0000	21,9861	0,0071
352,0000	22,0487	0,0070
353,0000	22,1113	0,0070
354,0000	22,1740	0,0067
355,0000	22,2366	0,0058
356,0000	22,2993	0,0070
357,0000	22,3619	0,0075
358,0000	22,4245	0,0077
359,0000	22,4872	0,0076
360,0000	22,5498	0,0062
361,0000	22,6125	0,0067
362,0000	22,6751	0,0067
363,0000	22,7377	0,0072
364,0000	22,8004	0,0068
365,0000	22,8630	0,0068
366,0000	22,9256	0,0065
367,0000	22,9883	0,0065
368,0000	23,0509	0,0063
369,0000	23,1136	0,0067
370,0000	23,1762	0,0068
371,0000	23,2388	0,0068
372,0000	23,3015	0,0063
373,0000	23,3641	0,0072
374,0000	23,4268	0,0066
375,0000	23,4894	0,0059
376,0000	23,5520	0,0066
377,0000	23,6147	0,0062
378,0000	23,6773	0,0067
379,0000	23,7399	0,0066
380,0000	23,8026	0,0068
381,0000	23,8652	0,0067
382,0000	23,9279	0,0076
383,0000	23,9905	0,0068
384,0000	24,0531	0,0068
385,0000	24,1158	0,0067
386,0000	24,1784	0,0076
387,0000	24,2410	0,0066
388,0000	24,3037	0,0065
389,0000	24,3663	0,0066
390,0000	24,4290	0,0068
391,0000	24,4916	0,0074
392,0000	24,5542	0,0071
393,0000	24,6169	0,0063
394,0000	24,6795	0,0066
395,0000	24,7422	0,0068
396,0000	24,8048	0,0066
397,0000	24,8674	0,0065
398,0000	24,9301	0,0071
399,0000	24,9927	0,0075
400,0000	25,0553	0,0066
401,0000	25,1180	0,0066
402,0000	25,1806	0,0075
403,0000	25,2433	0,0085
404,0000	25,3059	0,0068
405,0000	25,3685	0,0068
406,0000	25,4312	0,0074
407,0000	25,4938	0,0075
408,0000	25,5565	0,0076
409,0000	25,6191	0,0066
410,0000	25,6817	0,0068
411,0000	25,7444	0,0077
412,0000	25,8070	0,0070
413,0000	25,8696	0,0088
414,0000	25,9323	0,0090
415,0000	25,9949	0,0097
416,0000	26,0576	0,0092
417,0000	26,1202	0,0090
418,0000	26,1828	0,0112
419,0000	26,2455	0,0146
420,0000	26,3081	0,0164
421,0000	26,3708	0,0190
422,0000	26,4334	0,0231
423,0000	26,4960	0,0323
424,0000	26,5587	0,0440
425,0000	26,6213	0,0566
426,0000	26,6839	0,0660
427,0000	26,7466	0,0739
428,0000	26,8092	0,0842
429,0000	26,8719	0,0932
430,0000	26,9345	0,1007
431,0000	26,9971	0,1076
432,0000	27,0598	0,1169
433,0000	27,1224	0,1266
434,0000	27,1851	0,1348
435,0000	27,2477	0,1357
436,0000	27,3103	0,1311
437,0000	27,3730	0,1249
438,0000	27,4356	0,1196
439,0000	27,4982	0,1160
440,0000	27,5609	0,1093
441,0000	27,6235	0,0983
442,0000	27,6862	0,0856
443,0000	27,7488	0,0763
444,0000	27,8114	0,0709
445,0000	27,8741	0,0615
446,0000	27,9367	0,0502
447,0000	27,9994	0,0396
448,0000	28,0620	0,0303
449,0000	28,1246	0,0218
450,0000	28,1873	0,0158
451,0000	28,2499	0,0143
452,0000	28,3125	0,0115
453,0000	28,3752	0,0096
454,0000	28,4378	0,0075
455,0000	28,5005	0,0080
456,0000	28,5631	0,0066
457,0000	28,6257	0,0075
458,0000	28,6884	0,0076
459,0000	28,7510	0,0071
460,0000	28,8137	0,0074
461,0000	28,8763	0,0067
462,0000	28,9389	0,0067
463,0000	29,0016	0,0075
464,0000	29,0642	0,0072
465,0000	29,1268	0,0074
466,0000	29,1895	0,0072
467,0000	29,2521	0,0074
468,0000	29,3148	0,0076
469,0000	29,3774	0,0058
470,0000	29,4400	0,0070
471,0000	29,5027	0,0079
472,0000	29,5653	0,0067
473,0000	29,6279	0,0072
474,0000	29,6906	0,0065
475,0000	29,7532	0,0074
476,0000	29,8159	0,0074
477,0000	29,8785	0,0070
478,0000	29,9411	0,0070
479,0000	30,0038	0,0067
480,0000	30,0664	0,0075
481,0000	30,1291	0,0070
482,0000	30,1917	0,0074
483,0000	30,2543	0,0074
484,0000	30,3170	0,0068
485,0000	30,3796	0,0074
486,0000	30,4422	0,0072
487,0000	30,5049	0,0074
488,0000	30,5675	0,0083
489,0000	30,6302	0,0071
490,0000	30,6928	0,0071
491,0000	30,7554	0,0088
492,0000	30,8181	0,0075
493,0000	30,8807	0,0062
494,0000	30,9434	0,0070
495,0000	31,0060	0,0068
496,0000	31,0686	0,0068
497,0000	31,1313	0,0068
498,0000	31,1939	0,0079
499,0000	31,2565	0,0068
500,0000	31,3192	0,0075
501,0000	31,3818	0,0068
502,0000	31,4445	0,0063
503,0000	31,5071	0,0066
504,0000	31,5697	0,0065
505,0000	31,6324	0,0067
506,0000	31,6950	0,0072
507,0000	31,7577	0,0067
508,0000	31,8203	0,0079
509,0000	31,8829	0,0072
510,0000	31,9456	0,0079
511,0000	32,0082	0,0071
512,0000	32,0708	0,0062
513,0000	32,1335	0,0065
514,0000	32,1961	0,0067
515,0000	32,2588	0,0075
516,0000	32,3214	0,0074
517,0000	32,3840	0,0075
518,0000	32,4467	0,0077
519,0000	32,5093	0,0068
520,0000	32,5720	0,0071
521,0000	32,6346	0,0077
522,0000	32,6972	0,0072
523,0000	32,7599	0,0075
524,0000	32,8225	0,0068
525,0000	32,8851	0,0077
526,0000	32,9478	0,0075
527,0000	33,0104	0,0072
528,0000	33,0731	0,0076
529,0000	33,1357	0,0076
530,0000	33,1983	0,0075
531,0000	33,2610	0,0070
532,0000	33,3236	0,0074
533,0000	33,3863	0,0072
534,0000	33,4489	0,0075
535,0000	33,5115	0,0072
536,0000	33,5742	0,0076
537,0000	33,6368	0,0074
538,0000	33,6994	0,0079
539,0000	33,7621	0,0063
540,0000	33,8247	0,0075
541,0000	33,8874	0,0065
542,0000	33,9500	0,0068
543,0000	34,0126	0,0062
544,0000	34,0753	0,0065
545,0000	34,1379	0,0072
546,0000	34,2006	0,0071
547,0000	34,2632	0,0072
548,0000	34,3258	0,0076
549,0000	34,3885	0,0072
550,0000	34,4511	0,0077
551,0000	34,5137	0,0079
552,0000	34,5764	0,0084
553,0000	34,6390	0,0071
554,0000	34,7017	0,0065
555,0000	34,7643	0,0063
556,0000	34,8269	0,0075
557,0000	34,8896	0,0079
558,0000	34,9522	0,0085
559,0000	35,0148	0,0084
560,0000	35,0775	0,0076
561,0000	35,1401	0,0076
562,0000	35,2028	0,0075
563,0000	35,2654	0,0076
564,0000	35,3280	0,0075
565,0000	35,3907	0,0071
566,0000	35,4533	0,0072
567,0000	35,5160	0,0072
568,0000	35,5786	0,0077
569,0000	35,6412	0,0077
570,0000	35,7039	0,0076
571,0000	35,7665	0,0068
572,0000	35,8291	0,0072
573,0000	35,8918	0,0080
574,0000	35,9544	0,0076
575,0000	36,0171	0,0085
576,0000	36,0797	0,0070
577,0000	36,1423	0,0067
578,0000	36,2050	0,0072
579,0000	36,2676	0,0072
580,0000	36,3303	0,0079
581,0000	36,3929	0,0076
582,0000	36,4555	0,0081
583,0000	36,5182	0,0074
584,0000	36,5808	0,0085
585,0000	36,6434	0,0068
586,0000	36,7061	0,0066
587,0000	36,7687	0,0067
588,0000	36,8314	0,0072
589,0000	36,8940	0,0072
590,0000	36,9566	0,0075
591,0000	37,0193	0,0080
592,0000	37,0819	0,0085
593,0000	37,1446	0,0079
594,0000	37,2072	0,0070
595,0000	37,2698	0,0071
596,0000	37,3325	0,0071
597,0000	37,3951	0,0068
598,0000	37,4577	0,0077
599,0000	37,5204	0,0076
600,0000	37,5830	0,0083
601,0000	37,6457	0,0074
602,0000	37,7083	0,0081
603,0000	37,7709	0,0070
604,0000	37,8336	0,0081
605,0000	37,8962	0,0079
606,0000	37,9589	0,0083
607,0000	38,0215	0,0088
608,0000	38,0841	0,0098
609,0000	38,1468	0,0096
610,0000	38,2094	0,0081
611,0000	38,2720	0,0083
612,0000	38,3347	0,0087
613,0000	38,3973	0,0077
614,0000	38,4600	0,0096
615,0000	38,5226	0,0083
616,0000	38,5852	0,0077
617,0000	38,6479	0,0085
618,0000	38,7105	0,0103
619,0000	38,7732	0,0099
620,0000	38,8358	0,0092
621,0000	38,8984	0,0105
622,0000	38,9611	0,0108
623,0000	39,0237	0,0108
624,0000	39,0863	0,0120
625,0000	39,1490	0,0128
626,0000	39,2116	0,0161
627,0000	39,2743	0,0199
628,0000	39,3369	0,0257
629,0000	39,3995	0,0406
630,0000	39,4622	0,0619
631,0000	39,5248	0,0867
632,0000	39,5875	0,1223
633,0000	39,6501	0,1707
634,0000	39,7127	0,2478
635,0000	39,7754	0,3566
636,0000	39,8380	0,4666
637,0000	39,9006	0,5577
638,0000	39,9633	0,6641
639,0000	40,0259	0,7881
640,0000	40,0886	0,8941
641,0000	40,1512	0,9863
642,0000	40,2138	1,0938
643,0000	40,2765	1,2246
644,0000	40,3391	1,3459
645,0000	40,4017	1,4201
646,0000	40,4644	1,4478
647,0000	40,5270	1,4430
648,0000	40,5897	1,4277
649,0000	40,6523	1,4086
650,0000	40,7149	1,3634
651,0000	40,7776	1,2779
652,0000	40,8402	1,1503
653,0000	40,9029	1,0260
654,0000	40,9655	0,9235
655,0000	41,0281	0,8255
656,0000	41,0908	0,6933
657,0000	41,1534	0,5614
658,0000	41,2160	0,4509
659,0000	41,2787	0,3386
660,0000	41,3413	0,2243
661,0000	41,4040	0,1534
662,0000	41,4666	0,1081
663,0000	41,5292	0,0722
664,0000	41,5919	0,0464
665,0000	41,6545	0,0318
666,0000	41,7172	0,0223
667,0000	41,7798	0,0159
668,0000	41,8424	0,0132
669,0000	41,9051	0,0130
670,0000	41,9677	0,0128
671,0000	42,0303	0,0133
672,0000	42,0930	0,0127
673,0000	42,1556	0,0107
674,0000	42,2183	0,0096
675,0000	42,2809	0,0093
676,0000	42,3435	0,0099
677,0000	42,4062	0,0094
678,0000	42,4688	0,0081
679,0000	42,5315	0,0072
680,0000	42,5941	0,0080
681,0000	42,6567	0,0072
682,0000	42,7194	0,0081
683,0000	42,7820	0,0093
684,0000	42,8446	0,0096
685,0000	42,9073	0,0090
686,0000	42,9699	0,0093
687,0000	43,0326	0,0089
688,0000	43,0952	0,0088
689,0000	43,1578	0,0085
690,0000	43,2205	0,0080
691,0000	43,2831	0,0068
692,0000	43,3458	0,0077
693,0000	43,4084	0,0080
694,0000	43,4710	0,0085
695,0000	43,5337	0,0079
696,0000	43,5963	0,0084
697,0000	43,6589	0,0093
698,0000	43,7216	0,0092
699,0000	43,7842	0,0105
700,0000	43,8469	0,0094
701,0000	43,9095	0,0097
702,0000	43,9721	0,0099
703,0000	44,0348	0,0094
704,0000	44,0974	0,0089
705,0000	44,1601	0,0077
706,0000	44,2227	0,0088
707,0000	44,2853	0,0090
708,0000	44,3480	0,0089
709,0000	44,4106	0,0085
710,0000	44,4732	0,0087
711,0000	44,5359	0,0089
712,0000	44,5985	0,0094
713,0000	44,6612	0,0085
714,0000	44,7238	0,0087
715,0000	44,7864	0,0087
716,0000	44,8491	0,0090
717,0000	44,9117	0,0093
718,0000	44,9744	0,0079
719,0000	45,0370	0,0085
720,0000	45,0996	0,0085
721,0000	45,1623	0,0083
722,0000	45,2249	0,0097
723,0000	45,2875	0,0085
724,0000	45,3502	0,0085
725,0000	45,4128	0,0084
726,0000	45,4755	0,0081
727,0000	45,5381	0,0088
728,0000	45,6007	0,0079
729,0000	45,6634	0,0080
730,0000	45,7260	0,0085
731,0000	45,7886	0,0084
732,0000	45,8513	0,0090
733,0000	45,9139	0,0102
734,0000	45,9766	0,0107
735,0000	46,0392	0,0097
736,0000	46,1018	0,0096
737,0000	46,1645	0,0089
738,0000	46,2271	0,0081
739,0000	46,2898	0,0080
740,0000	46,3524	0,0081
741,0000	46,4150	0,0080
742,0000	46,4777	0,0072
743,0000	46,5403	0,0077
744,0000	46,6029	0,0072
745,0000	46,6656	0,0076
746,0000	46,7282	0,0076
747,0000	46,7909	0,0075
748,0000	46,8535	0,0079
749,0000	46,9161	0,0084
750,0000	46,9788	0,0080
751,0000	47,0414	0,0079
752,0000	47,1041	0,0088
753,0000	47,1667	0,0076
754,0000	47,2293	0,0089
755,0000	47,2920	0,0094
756,0000	47,3546	0,0106
757,0000	47,4172	0,0081
758,0000	47,4799	0,0077
759,0000	47,5425	0,0079
760,0000	47,6052	0,0074
761,0000	47,6678	0,0076
762,0000	47,7304	0,0079
763,0000	47,7931	0,0084
764,0000	47,8557	0,0090
765,0000	47,9184	0,0081
766,0000	47,9810	0,0089
767,0000	48,0436	0,0090
768,0000	48,1063	0,0080
769,0000	48,1689	0,0081
770,0000	48,2315	0,0090
771,0000	48,2942	0,0092
772,0000	48,3568	0,0093
773,0000	48,4195	0,0089
774,0000	48,4821	0,0080
775,0000	48,5447	0,0085
776,0000	48,6074	0,0088
777,0000	48,6700	0,0092
778,0000	48,7327	0,0088
779,0000	48,7953	0,0089
780,0000	48,8579	0,0084
781,0000	48,9206	0,0093
782,0000	48,9832	0,0098
783,0000	49,0458	0,0089
784,0000	49,1085	0,0080
785,0000	49,1711	0,0083
786,0000	49,2338	0,0090
787,0000	49,2964	0,0089
788,0000	49,3590	0,0102
789,0000	49,4217	0,0097
790,0000	49,4843	0,0094
791,0000	49,5470	0,0081
792,0000	49,6096	0,0080
793,0000	49,6722	0,0079
794,0000	49,7349	0,0083
795,0000	49,7975	0,0102
796,0000	49,8601	0,0101
797,0000	49,9228	0,0102
798,0000	49,9854	0,0088
799,0000	50,0481	0,0087
800,0000	50,1107	0,0084
801,0000	50,1733	0,0085
802,0000	50,2360	0,0085
803,0000	50,2986	0,0080
804,0000	50,3613	0,0085
